File: Greenhouse gas exchange and TDL/20230315 TGA Sampling System_SiteAvg.dat
"TOA5","TGA Sampling System","CR3000","3722","CR3000.Std.28.02","CPU:TGAsampling_v1_2_LICOR_high_CO2__site_11_13_CalTank2.CR3","2183","SiteAvg"
"TIMESTAMP","RECORD","valve_number","diag_system_Avg","NumSamples","Conc12C_Avg","Conc13C_Avg","TGAStatus_Avg","TGAPressure_Avg","LaserTemp_Avg","DCCurrentA_Avg","DCCurrentB_Avg","TGAAnalog1_Avg","TGATemp1_Avg","TGATemp2_Avg","LaserCooler_Avg","RefDetSigA_Avg","RefDetSigB_Avg","RefDetTransA_Avg","RefDetTransB_Avg","RefDetTemp_Avg","RefDetCooler_Avg","RefDetGainOffset_Avg","SmpDetSigA_Avg","SmpDetSigB_Avg","SmpDetTransA_Avg","SmpDetTransB_Avg","SmpDetTemp_Avg","SmpDetCooler_Avg","SmpDetGainOffset_Avg","TGATemp1DutyCycle_Avg","TGATemp2DutyCycle_Avg","SampleFlow_Avg","ExcessFlow_Avg","SamplePress_Avg","BypassPress_Avg","SampleP_control_Avg","BypassP_control_Avg","TGAPress_control_Avg","panel_tmpr_Avg","batt_volt_Avg","buff_depth_Max","Conc12C_Std","Conc13C_Std","TGAStatus_Std","TGAPressure_Std","LaserTemp_Std","DCCurrentA_Std","DCCurrentB_Std","TGAAnalog1_Std","TGATemp1_Std","TGATemp2_Std","LaserCooler_Std","RefDetSigA_Std","RefDetSigB_Std","RefDetTransA_Std","RefDetTransB_Std","RefDetTemp_Std","RefDetCooler_Std","RefDetGainOffset_Std","SmpDetSigA_Std","SmpDetSigB_Std","SmpDetTransA_Std","SmpDetTransB_Std","SmpDetTemp_Std","SmpDetCooler_Std","SmpDetGainOffset_Std","TGATemp1DutyCycle_Std","TGATemp2DutyCycle_Std","SampleFlow_Std","ExcessFlow_Std","SamplePress_Std","BypassPress_Std","SampleP_control_Std","BypassP_control_Std","TGAPress_control_Std","panel_tmpr_Std","batt_volt_Std","Li64Match_Avg(1)","Li64Match_Avg(2)","Li64Tmpr_Avg(1)","Li64Tmpr_Avg(2)","Li64Heat_Avg(1)","Li64Heat_Avg(2)","_Mix_diag_system_Avg","_Mix_ExcessZeroFlow_Avg","_Mix_ExcessMixFlow_Avg","_Mix_CO2Press_Avg","_Mix_ZeroPress_Avg","_Mix_CO2P_control_Avg","_Mix_ZeroP_control_Avg","_Mix_MixTmpr1_Avg","_Mix_MixTmpr2_Avg","_Mix_MixHeat1_Avg","_Mix_MixHeat2_Avg","_Mix_panel_tmpr_Avg","_Mix_batt_volt_Avg"
"TS","RN","","","","ppm","ppm","","mb","degC","mA","mA","V","degC","degC","V","mV","mV","%","%","degC","","","mV","mV","%","%","degC","","","","","ml_min","ml_min","mb","mb","","","","degC","V","","ppm","ppm","","mb","degC","mA","mA","V","degC","degC","V","mV","mV","%","%","degC","","","mV","mV","%","%","degC","","","","","ml_min","ml_min","mb","mb","","","","degC","V","","","degC","degC","","","","","","","","","","","","","","",""
"","","Smp","Avg","Tot","Avg","Avg","Avg","Avg","Avg","Avg","Avg","Avg","Avg","Avg","Avg","Avg","Avg","Avg","Avg","Avg","Avg","Avg","Avg","Avg","Avg","Avg","Avg","Avg","Avg","Avg","Avg","Avg","Avg","Avg","Avg","Avg","Avg","Avg","Avg","Avg","Max","Std","Std","Std","Std","Std","Std","Std","Std","Std","Std","Std","Std","Std","Std","Std","Std","Std","Std","Std","Std","Std","Std","Std","Std","Std","Std","Std","Std","Std","Std","Std","Std","Std","Std","Std","Std","Avg","Avg","Avg","Avg","Avg","Avg","Avg","Avg","Avg","Avg","Avg","Avg","Avg","Avg","Avg","Avg","Avg","Avg","Avg"
"2023-03-15 09:30:44.2",0,20,0,100,3.734803,0.04075382,0,29.99858,-0.9999909,73.48408,71.32618,0.02390591,21.3095,21.25833,2.224418,2.95771,2.149852,53.57532,41.41557,-19.99997,756.5296,12325,53.47712,50.4229,99.84169,99.90038,-26.99997,852.3878,12671.79,1,1,169.5622,99.53049,399.9895,400.0781,0.4085672,0.4820625,0.5234513,23.14129,11.76678,0,0.5912907,0.006339824,0,0.01034634,0.0002329777,0.0001975577,0.0002573366,1.159613E-05,0.0004814295,0.0004968439,0.0002793019,0.002446487,0.002700078,0.04516771,0.05332609,0.0005150973,0.04981704,0,0.008425273,0.01126413,0.01498458,0.02106554,0.0004673779,0.04626663,1.321325,0,0,0.1614257,0.122963,0.02499093,0.1898016,0.0001099482,0.0002221413,0.0005407388,0.002030661,0.002555778,1,0,-78.9656,"NAN",1,0,"NAN","NAN","NAN","NAN","NAN","NAN","NAN","NAN","NAN","NAN","NAN","NAN","NAN"
"2023-03-15 10:03:04.2",97,12,0,100,429.3566,4.680026,0,29.99881,-0.9999902,73.48588,71.32787,0.02390639,21.64938,21.60857,2.233142,3.009388,2.222192,54.44199,42.72544,-19.99994,758.6509,12325,48.03245,43.36895,89.80714,86.38682,-26.99994,854.4382,12664,1,1,170.907,43.58211,399.9314,399.9897,0.3668336,0.469198,0.5432845,23.0803,11.76488,0,0.1955177,0.001771426,0,0.01052539,0.0002495219,0.0002516533,0.0002677826,1.111518E-05,0.0005213575,0.0006792502,0.0003005147,0.001438448,0.001412503,0.02874693,0.0276045,0.0004976966,0.04784245,0,0.002664254,0.002550545,0.006315042,0.005697475,0.0005588483,0.05317344,0,0,0,0.1375886,0.8033161,0.08134753,0.03460374,0.0007972104,2.647663E-05,0.0005400818,0.001758905,0.002114809,1,0,-81.24777,"NAN",1,0,960,0.5091165,164.9789,11.21186,16.86654,0,0,28.23251,28.29452,1,1,20.98821,9.537538
"2023-03-15 10:35:24.2",194,10,0,100,436.7308,4.761498,0,29.99865,-0.9999716,73.48963,71.3316,0.02391508,22.08392,22.05274,2.251589,2.995805,2.227764,54.15026,42.82502,-19.99988,763.0703,12325,47.92203,43.29206,89.5648,86.24149,-26.9999,858.733,12667,1,1,169.3746,48.17343,400.0139,400.0424,0.3656012,0.4673185,0.5477941,23.14255,11.76484,0,0.3070599,0.002779475,0,0.01082383,0.0002345428,0.0001464938,0.0002234673,1.221862E-05,0.0007466014,0.000653106,0.0002814957,0.001278178,0.001325005,0.0256236,0.02873432,0.0005333226,0.05362119,0,0.00428786,0.00384433,0.007757721,0.007870794,0.000458245,0.04634365,0,0,0,0.1101194,0.09657994,0.02160984,0.3481075,0.0001622813,0.0004816504,0.0005689666,0.002218023,0.002112906,1,0,-78.60523,"NAN",1,0,960,0.4731956,163.3015,10.73927,16.81887,0,0,28.73021,28.76943,1,1,21.5327,9.542142
"2023-03-15 11:07:44.2",291,26,4,100,1018.15,11.21024,0,30.00051,-0.9999583,73.49347,71.33611,0.02392004,22.48776,22.45512,2.276399,2.983167,2.230602,53.88379,42.86752,-19.99986,769.1224,12325,41.23249,35.13086,77.23882,70.52213,-26.99993,864.6371,12650,1,1,169.7352,0.2203884,401.4063,399.8517,0.2635131,0.4679587,0.5504481,23.35765,11.7642,0,0.8543913,0.009099048,0,0.009427942,0.0002480894,0.0001604954,0.000239155,1.206865E-05,0.000578029,0.0005470956,0.0003003116,0.001585888,0.00145329,0.02507818,0.02439324,0.0005124439,0.05015611,0,0.00865598,0.009993322,0.01599314,0.0185244,0.0004699243,0.04900462,0,0,0,0.0963096,0.04504697,0.08642804,0.4805332,0.0125344,0.0005178835,0.0004787307,0.001951609,0.002253644,1,0,-78.90504,"NAN",1,0,960,0.4796892,162.1758,10.47618,16.77452,0,0,29.27828,29.26722,1,1,22.0323,9.54093
"2023-03-15 11:40:04.2",388,21,0,100,70.03612,0.768694,0,30.00011,-0.9999555,73.49859,71.34077,0.0239293,22.80331,22.77497,2.30326,2.977255,2.240178,53.7696,43.00756,-19.99989,775.7504,12325,52.60011,49.28367,98.17077,97.68129,-26.99988,871.144,12671,1,1,168.657,108.4568,400.0048,400.0153,0.3943489,0.46098,0.5522788,23.58689,11.76539,0,0.09437398,0.0007568837,0,0.0111947,0.0002699279,0.0002619947,0.0003160073,1.265232E-05,0.0002718098,0.0004383587,0.0003274402,0.002939546,0.002860544,0.03216738,0.03781314,0.0004540526,0.04733832,0,0.004498553,0.00492148,0.004862027,0.006074269,0.0004696484,0.04673839,0,0,0,0.179184,0.09210081,0.02039831,0.05027289,5.222331E-05,0.0001251895,0.0005755395,0.002248126,0.002239251,1,0,-80.66436,"NAN",1,0,960,0.4705194,162.0798,10.4765,16.77683,0,0,29.70083,29.65188,1,1,22.43306,9.545732
"2023-03-15 12:12:24.2",485,13,0,100,393.8284,4.300478,0,30.00042,-0.9999611,73.50278,71.34399,0.02393155,23.02115,22.98399,2.328966,2.971471,2.243483,53.62704,43.04747,-19.99988,782.2026,12325,48.36137,43.97585,90.36625,87.53561,-26.99988,877.3984,12666,1,1,171.1053,26.81761,399.9173,400.0051,0.3528179,0.4677361,0.5533902,23.75869,11.76764,0,0.2731332,0.002532871,0,0.01043874,0.0002262343,0.0002745143,0.0003223079,1.389638E-05,0.0003263362,0.0002782473,0.0002750889,0.002885816,0.002843874,0.03317712,0.03896779,0.0005142842,0.05013464,0,0.004472379,0.004500691,0.005371208,0.0062744,0.0005093734,0.05075193,0,0,0,0.1654817,1.157634,0.1978419,0.04476072,0.001624666,8.481644E-05,0.0005350626,0.001743784,0.002255212,1,0,-77.21124,"NAN",1,0,960,0.4494295,161.8359,10.36353,16.78389,0,0,30.00845,29.91102,1,1,22.70461,9.545736
"2023-03-15 12:44:44.2",582,11,0,100,394.6167,4.309114,0,29.99944,-0.9999624,73.50616,71.34825,0.0239337,23.21925,23.18735,2.352391,2.966126,2.246272,53.50785,43.07038,-19.99987,788.1044,12325,48.34454,43.96974,90.34668,87.51705,-26.9999,883.1707,12663,1,1,171.2374,57.60527,400.0248,400.0276,0.3736851,0.4640056,0.5544906,23.90599,11.7676,0,0.1993786,0.002212758,0,0.009804573,0.0002651009,0.0002349952,0.0002429193,1.120498E-05,0.0003453101,0.0004221616,0.0003197379,0.001536533,0.001431767,0.02738949,0.02774377,0.0005079558,0.05245538,0,0.002909439,0.002807197,0.005708628,0.006125344,0.0004702357,0.04735979,0,0,0,0.1047522,0.3267424,0.04668707,0.04404778,0.0003766723,6.720533E-05,0.0005000815,0.0012744,0.002244988,1,0,-77.37223,"NAN",1,0,960,0.4354649,161.6704,10.35433,16.78733,0,0,30.20509,30.10635,1,1,22.89728,9.548618
"2023-03-15 13:17:04.2",679,2,0,100,294.8992,3.258699,0,29.99975,-0.9999653,73.50925,71.35198,0.0239428,23.40203,23.37008,2.374177,2.958165,2.248771,53.34258,43.10593,-19.99987,793.6302,12325,49.61184,45.53809,92.65096,90.52113,-26.99987,888.5398,12665,1,1,163.041,51.75932,400.0076,399.9076,0.371227,0.4858945,0.555966,24.05182,11.76797,0,1.153195,0.01246032,0,0.01123184,0.0002577659,0.0002401728,0.000278786,1.351494E-05,0.0003458142,0.0002576829,0.0003110614,0.001770828,0.001678577,0.03021001,0.03232556,0.0005265577,0.05460671,0,0.01506496,0.01822844,0.02745232,0.0349552,0.0004850818,0.04728767,0,0,0,0.1134556,0.1869195,0.02124,0.3516257,7.163289E-05,0.0003894296,0.0005769783,0.002085278,0.002329731,1,0,-77.17788,"NAN",1,0,960,0.4756808,162.1831,10.29913,16.78699,0,0,30.42077,30.30298,1,1,23.06772,9.55275
"2023-03-15 13:49:24.2",776,23,0,100,314.4205,3.455479,0,29.99995,-0.9999583,73.51225,71.35519,0.02394975,23.54755,23.51515,2.3938,2.955421,2.250921,53.26031,43.1324,-19.99992,798.6772,12325,49.35219,45.21322,92.16116,89.88703,-26.99992,893.4487,12674,1,1,168.4288,143.4126,399.9998,400.0852,0.4078323,0.4589898,0.5567318,24.18496,11.76574,0,0.1641829,0.001992122,0,0.01188801,0.0002519393,0.0001688076,0.000228195,1.224452E-05,0.0002337788,0.0002837583,0.0003040642,0.00170905,0.001711879,0.03069856,0.03171869,0.0004834953,0.04774732,0,0.003614214,0.003150866,0.006659016,0.006359332,0.0004721149,0.04434831,0,0,0,0.1903659,0.127181,0.02106881,0.1652574,4.875497E-05,0.0001948385,0.0006114369,0.001931492,0.002340181,1,0,-78.94839,"NAN",1,0,960,0.4512268,161.5784,10.21072,16.76992,0,0,30.58378,30.43466,1,1,23.18985,9.553823
"2023-03-15 14:21:44.2",873,20,0,100,1.763496,0.01775091,0,29.9969,-0.9999667,73.51572,71.35809,0.02394751,23.65907,23.62723,2.410877,2.951329,2.254085,53.16483,43.16672,-19.99992,803.055,12325,53.56464,50.51352,99.88721,99.99199,-26.99985,897.6877,12664,1,1,168.3906,98.30072,400.0007,400.0886,0.3928712,0.4635321,0.5572814,24.28557,11.76877,0,0.5505168,0.006050331,0,0.01170789,0.0002361139,0.000229485,0.0002491066,1.355802E-05,0.0002800419,0.0002930296,0.0002846967,0.002237322,0.002277114,0.04677585,0.04445054,0.0004641596,0.0445689,0,0.0084549,0.01043169,0.01516716,0.02015937,0.000462235,0.04679204,0,0,0,0.1964195,0.1044495,0.02063818,0.1740434,4.656071E-05,0.0002122189,0.0006891227,0.0021953,0.002134266,1,0,-79.59233,"NAN",1,0,960,0.4466655,160.9559,10.15657,16.77494,0,0,30.69215,30.53378,1,1,23.29491,9.549588
"2023-03-15 14:54:04.2",970,12,0,100,429.1193,4.684369,0,30.00031,-0.9999722,73.51813,71.36053,0.0239532,23.78389,23.75496,2.426591,2.948194,2.25484,53.10199,43.14315,-19.99991,806.9945,12325,47.86356,43.46877,89.41878,86.51045,-26.99993,901.5051,12669,1,1,169.7495,44.53109,399.9263,399.9876,0.3678674,0.4670098,0.5575462,24.38881,11.7691,0,1.45605,0.01639997,0,0.01037464,0.0002590388,0.0002485855,0.0002360468,1.199087E-05,0.0003437447,0.0003133634,0.0003106776,0.002252438,0.002500271,0.04562433,0.05349949,0.0005273647,0.05167392,0,0.01809756,0.02237045,0.03304053,0.04321201,0.0005114514,0.04763697,0,0,0,0.2451097,0.8274313,0.07908609,0.03891973,0.0007945675,2.772532E-05,0.0005329649,0.002229074,0.002114885,1,0,-77.16165,"NAN",1,0,960,0.458187,161.5567,10.26559,16.76822,0,0,30.7995,30.63321,1,1,23.38888,9.548251
"2023-03-15 15:26:24.2",1067,10,0,100,391.8115,4.274693,0,30.00057,-0.9999819,73.51996,71.36303,0.02395595,23.82168,23.78516,2.439309,2.949623,2.258805,53.08974,43.20963,-19.99991,810.2661,12325,48.34075,44.05656,90.28583,87.65192,-26.99997,904.676,12666,1,1,171.5644,45.2907,400.0167,400.0431,0.3673241,0.4674827,0.5573562,24.42922,11.76933,0,0.2377562,0.002494925,0,0.01435173,0.0002607099,0.0002675178,0.0002734405,1.364206E-05,0.0002322664,0.0002720665,0.0003126813,0.002859939,0.002520628,0.05722151,0.05362061,0.0004900331,0.05002891,0,0.003674309,0.003059081,0.008012254,0.00672601,0.0004276081,0.04404194,0,0,0,0.08976572,0.1402561,0.04791594,0.3679093,0.0001350081,0.0005148929,0.0007353582,0.00200458,0.001983183,1,0,-80.0466,"NAN",1,0,960,0.4297307,160.7288,10.20238,16.75968,0,0,30.7995,30.6478,1,1,23.41013,9.533812
"2023-03-15 15:57:44.2",1161,20,0,100,1.505406,0.01423326,0,30.00005,-1.000006,73.52076,71.36406,0.02395579,23.69757,23.6689,2.446007,2.955264,2.260104,53.18678,43.22472,-19.99999,811.9658,12325,53.56754,50.5112,99.91442,100.006,-26.99997,906.3541,12667,1,1,168.7838,97.44025,400.0024,400.3277,0.3924776,0.4668034,0.5566816,24.33823,11.76823,0,0.5607274,0.005998963,0,0.01190953,0.0002823647,0.0002799954,0.00031699,1.355288E-05,0.0004128333,0.0004138538,0.0003388423,0.003577981,0.003212765,0.0588908,0.05398742,0.0004843891,0.04683693,0,0.009306431,0.01025681,0.01551587,0.01868714,0.0004509915,0.04451009,0,0,0,0.1766209,0.09347676,0.02035118,0.3188572,5.838301E-05,0.001115968,0.000609515,0.00219247,0.002204699,1,0,-77.18916,"NAN",1,0,960,0.4404003,159.6584,10.14738,16.70829,0,0,30.67072,30.53332,1,1,23.23843,9.516064