File: Greenhouse gas exchange and TDL/20230314 TGA Sampling System_SiteAvg.dat
"TOA5","TGA Sampling System","CR3000","3722","CR3000.Std.28.02","CPU:TGAsampling_v1_2_LICOR_high_CO2__site_11_13_CalTank2.CR3","2183","SiteAvg"
"TIMESTAMP","RECORD","valve_number","diag_system_Avg","NumSamples","Conc12C_Avg","Conc13C_Avg","TGAStatus_Avg","TGAPressure_Avg","LaserTemp_Avg","DCCurrentA_Avg","DCCurrentB_Avg","TGAAnalog1_Avg","TGATemp1_Avg","TGATemp2_Avg","LaserCooler_Avg","RefDetSigA_Avg","RefDetSigB_Avg","RefDetTransA_Avg","RefDetTransB_Avg","RefDetTemp_Avg","RefDetCooler_Avg","RefDetGainOffset_Avg","SmpDetSigA_Avg","SmpDetSigB_Avg","SmpDetTransA_Avg","SmpDetTransB_Avg","SmpDetTemp_Avg","SmpDetCooler_Avg","SmpDetGainOffset_Avg","TGATemp1DutyCycle_Avg","TGATemp2DutyCycle_Avg","SampleFlow_Avg","ExcessFlow_Avg","SamplePress_Avg","BypassPress_Avg","SampleP_control_Avg","BypassP_control_Avg","TGAPress_control_Avg","panel_tmpr_Avg","batt_volt_Avg","buff_depth_Max","Conc12C_Std","Conc13C_Std","TGAStatus_Std","TGAPressure_Std","LaserTemp_Std","DCCurrentA_Std","DCCurrentB_Std","TGAAnalog1_Std","TGATemp1_Std","TGATemp2_Std","LaserCooler_Std","RefDetSigA_Std","RefDetSigB_Std","RefDetTransA_Std","RefDetTransB_Std","RefDetTemp_Std","RefDetCooler_Std","RefDetGainOffset_Std","SmpDetSigA_Std","SmpDetSigB_Std","SmpDetTransA_Std","SmpDetTransB_Std","SmpDetTemp_Std","SmpDetCooler_Std","SmpDetGainOffset_Std","TGATemp1DutyCycle_Std","TGATemp2DutyCycle_Std","SampleFlow_Std","ExcessFlow_Std","SamplePress_Std","BypassPress_Std","SampleP_control_Std","BypassP_control_Std","TGAPress_control_Std","panel_tmpr_Std","batt_volt_Std","Li64Match_Avg(1)","Li64Match_Avg(2)","Li64Tmpr_Avg(1)","Li64Tmpr_Avg(2)","Li64Heat_Avg(1)","Li64Heat_Avg(2)","_Mix_diag_system_Avg","_Mix_ExcessZeroFlow_Avg","_Mix_ExcessMixFlow_Avg","_Mix_CO2Press_Avg","_Mix_ZeroPress_Avg","_Mix_CO2P_control_Avg","_Mix_ZeroP_control_Avg","_Mix_MixTmpr1_Avg","_Mix_MixTmpr2_Avg","_Mix_MixHeat1_Avg","_Mix_MixHeat2_Avg","_Mix_panel_tmpr_Avg","_Mix_batt_volt_Avg"
"TS","RN","","","","ppm","ppm","","mb","degC","mA","mA","V","degC","degC","V","mV","mV","%","%","degC","","","mV","mV","%","%","degC","","","","","ml_min","ml_min","mb","mb","","","","degC","V","","ppm","ppm","","mb","degC","mA","mA","V","degC","degC","V","mV","mV","%","%","degC","","","mV","mV","%","%","degC","","","","","ml_min","ml_min","mb","mb","","","","degC","V","","","degC","degC","","","","","","","","","","","","","","",""
"","","Smp","Avg","Tot","Avg","Avg","Avg","Avg","Avg","Avg","Avg","Avg","Avg","Avg","Avg","Avg","Avg","Avg","Avg","Avg","Avg","Avg","Avg","Avg","Avg","Avg","Avg","Avg","Avg","Avg","Avg","Avg","Avg","Avg","Avg","Avg","Avg","Avg","Avg","Avg","Max","Std","Std","Std","Std","Std","Std","Std","Std","Std","Std","Std","Std","Std","Std","Std","Std","Std","Std","Std","Std","Std","Std","Std","Std","Std","Std","Std","Std","Std","Std","Std","Std","Std","Std","Std","Std","Avg","Avg","Avg","Avg","Avg","Avg","Avg","Avg","Avg","Avg","Avg","Avg","Avg","Avg","Avg","Avg","Avg","Avg","Avg"
"2023-03-14 09:46:54.9",0,20,0,100,3.040483,0.03232421,0,29.99873,-1.000002,73.47709,71.31904,0.02390418,20.86187,20.78608,2.192422,3.038006,2.212575,55.02782,42.64326,-20.00002,749.8193,12323,53.50127,50.42965,99.85953,99.95811,-26.99996,845.834,12664,1,1,169.9837,101.7831,399.9929,400.1074,0.392969,0.4684615,0.5277237,22.01521,11.76326,0,0.5643594,0.006226836,0,0.009395462,0.0002601907,0.0001374635,0.0002179994,1.197095E-05,0.0003237053,0.0003318326,0.0003124193,0.00116377,0.001151457,0.02342894,0.02540481,0.0005318274,0.05310668,0,0.008172305,0.01069167,0.01528528,0.02035765,0.0004906095,0.04766932,0,0,0,0.2220531,0.1391279,0.0216867,0.1995022,8.06544E-05,0.000245344,0.0004714703,0.006186406,0.002296423,1,0,-79.55009,"NAN",1,0,"NAN","NAN","NAN","NAN","NAN","NAN","NAN","NAN","NAN","NAN","NAN","NAN","NAN"
"2023-03-14 10:18:14.9",94,2,0,100,298.008,3.287584,0,30.00042,-0.999984,73.47728,71.31965,0.02390506,21.06902,21.00207,2.194211,3.031925,2.217582,54.9332,42.70411,-19.99997,750.2224,12323,49.70613,45.38861,92.90715,90.27354,-26.99992,846.2164,12655,1,1,164.4415,55.38289,399.9851,399.9214,0.367895,0.4806584,0.5396221,21.93905,11.76233,0,1.89004,0.02075002,0,0.01122152,0.0002628908,0.0002898188,0.0003286939,1.256333E-05,0.0005026472,0.000508873,0.0003150378,0.001357431,0.00157569,0.02887291,0.0348989,0.0006204835,0.05901823,0,0.02308523,0.03077042,0.04238737,0.05877083,0.000601788,0.05782226,0,0,0,0.1307668,0.25497,0.02181963,0.3530264,0.0001335073,0.0004241039,0.0005753846,0.001861324,0.001992161,1,0,-77.39585,"NAN",1,0,960,0.4832932,167.7193,14.91764,16.95045,0,0,27.57507,27.69287,1,1,20.34207,9.526325
"2023-03-14 10:49:34.9",188,13,0,100,395.8048,4.318664,0,29.99929,-0.9999716,73.47946,71.32181,0.02390866,21.41789,21.36335,2.20522,3.019625,2.221744,54.66084,42.76887,-19.99996,752.739,12323,48.46805,43.87564,90.59667,87.41248,-26.99994,848.6838,12661,1,1,172.1494,40.39292,399.9368,400.0127,0.3569387,0.4645818,0.5434859,22.09455,11.76261,0,0.1924258,0.001672323,0,0.01005584,0.0002624686,0.0002784286,0.0002833801,1.095259E-05,0.000666194,0.0005518281,0.000315109,0.001297887,0.001148781,0.02642834,0.02369175,0.0005885293,0.05811122,0,0.003024575,0.002084159,0.006010358,0.004849765,0.0005470248,0.05417146,0,0,0,0.3046578,0.5456944,0.07033369,0.03184038,0.0006652264,7.659385E-05,0.0005146142,0.00231705,0.00218192,1,0,-78.80208,"NAN",1,0,960,0.4765458,166.7241,14.54572,16.88756,0,0,27.92471,28.01928,1,1,20.74421,9.527369
"2023-03-14 11:20:54.9",282,26,4,100,1458.967,16.07479,0,30.00018,-0.9999653,73.48266,71.32491,0.02390816,21.77884,21.72893,2.222937,3.003078,2.220343,54.36839,42.7075,-19.9999,756.96,12323,36.95808,29.9148,69.39355,60.4376,-26.99992,852.7825,12629,1,1,169.8943,1.265019,401.5318,399.8629,0.2976223,0.4692769,0.5467116,22.3964,11.76134,0,0.9908519,0.01147408,0,0.009812178,0.0002435423,0.0002182973,0.0002333765,1.167109E-05,0.0004292976,0.0005357878,0.0002938773,0.001377492,0.001354988,0.03001057,0.0260832,0.0006057136,0.05917464,0,0.009666154,0.009886262,0.01819224,0.01897344,0.0006414232,0.06334616,0,0,0,0.8255566,0.7307121,0.9544013,0.4509883,0.0130262,0.0004825599,0.0005073429,0.002007382,0.002186404,1,0,-77.73534,"NAN",1,0,960,0.4696842,166.1553,13.78877,16.90721,0,0,28.41769,28.48001,1,1,21.23221,9.537197
"2023-03-14 11:52:14.9",376,12,0,100,433.035,4.720222,0,30.00074,-0.9999632,73.48638,71.32822,0.02392358,22.08586,22.03577,2.244302,2.99583,2.229384,54.15737,42.87175,-19.99989,762.159,12323,47.9481,43.33356,89.63717,86.35627,-26.99988,857.8697,12665,1,1,170.5604,44.87824,399.915,400.0002,0.3617927,0.4691124,0.5484587,22.72969,11.76448,0,0.194264,0.002413085,0,0.009095517,0.0002297693,0.0002264671,0.0002512332,1.339901E-05,0.0002676143,0.0004481981,0.0002779796,0.001306014,0.001267324,0.02698573,0.02564729,0.0005341212,0.05157883,0,0.002976606,0.003004112,0.00675759,0.006518296,0.0005791747,0.05529764,0,0,0,0.1891953,1.140629,0.1294471,0.1177806,0.001068057,0.0001990277,0.0004667116,0.002190422,0.002150771,1,0,-77.23241,"NAN",1,0,960,0.4458982,164.7199,13.21209,16.86344,0,0,28.86539,28.88635,1,1,21.6434,9.539768
"2023-03-14 12:23:34.9",470,23,0,100,427.3564,4.700068,0,30.00045,-0.999957,73.48996,71.33178,0.0239324,22.28926,22.23087,2.265771,2.989962,2.23078,54.05006,42.86079,-19.99989,767.3774,12323,48.00816,43.36631,89.767,86.37936,-26.99994,862.957,12666.54,1,1,169.0558,146.8292,400.0016,400.0839,0.4049674,0.4595826,0.5492728,22.97487,11.76295,0,0.3179777,0.002930078,0,0.01022762,0.000255498,0.0002589966,0.0002956874,1.138138E-05,0.0005587094,0.000336864,0.000307859,0.003239656,0.003336715,0.03954461,0.04541178,0.0005198761,0.05202403,0,0.005425683,0.0058553,0.007281962,0.007980725,0.0005308921,0.0533803,1.717091,0,0,0.1775194,0.1374298,0.02154707,0.1606642,5.26481E-05,0.0002000105,0.0005226642,0.003123141,0.002286717,1,0,-77.47871,"NAN",1,0,960,0.477132,164.6939,12.83051,16.86885,0,0,29.17355,29.17148,1,1,21.94614,9.539935
"2023-03-14 12:54:54.9",564,11,0,100,395.711,4.322901,0,30.00039,-0.9999583,73.49333,71.33531,0.02393916,22.54312,22.49596,2.287568,2.983571,2.235742,53.89904,42.94138,-19.99986,772.6437,12323,48.37852,43.93464,90.40694,87.47171,-26.99991,868.1168,12670,1,1,172.0858,66.24799,400.0523,400.036,0.3763865,0.4643097,0.551033,23.21732,11.76581,0,0.3162997,0.003496957,0,0.01022367,0.0002447649,0.0002064212,0.0002538593,1.259249E-05,0.0006339753,0.0004451472,0.0002949313,0.00125148,0.001229184,0.02511888,0.02267235,0.0005216326,0.05293104,0,0.005330243,0.005364667,0.01050979,0.0101243,0.0005221234,0.05069026,0,0,0,0.2489252,0.5310577,0.06382325,0.06874674,0.0004932847,7.914299E-05,0.0005232929,0.002362865,0.002215035,1,0,-77.69407,"NAN",1,0,960,0.4427599,163.8996,12.48613,16.85024,0,0,29.49103,29.42835,1,1,22.22497,9.542811
"2023-03-14 13:26:14.9",658,21,0,100,85.61182,0.9382354,0,29.99848,-0.9999583,73.49695,71.33939,0.02394125,22.7811,22.73535,2.309847,2.980205,2.241792,53.83702,43.01563,-19.99986,778.132,12323,52.40074,49.01982,97.7976,97.17059,-26.99987,873.4598,12666,1,1,168.767,110.0889,400.0002,400.0289,0.3948554,0.4621446,0.5524845,23.45815,11.76512,0,0.09242345,0.0008744227,0,0.01109552,0.0002532769,0.0002362371,0.0002476814,1.227663E-05,0.0003984369,0.0004517706,0.0003061896,0.001422694,0.001358578,0.02996197,0.02732765,0.0005479623,0.05642074,0,0.003211688,0.00284933,0.007187223,0.006666212,0.000508505,0.05135703,0,0,0,0.1818339,0.09247055,0.02272843,0.05357444,5.406961E-05,6.747388E-05,0.0005768039,0.002243407,0.002179155,1,0,-78.78504,"NAN",1,0,960,0.4941508,163.2774,12.19269,16.81345,0,0,29.77134,29.68543,1,1,22.47549,9.541755
"2023-03-14 13:57:34.9",752,10,0,100,427.7612,4.663739,0,29.99991,-0.9999591,73.50095,71.34303,0.02394176,22.97876,22.93693,2.331506,2.973192,2.244425,53.65386,43.05031,-19.99987,783.4402,12323,47.95527,43.48309,89.60056,86.57401,-26.99991,878.6272,12663,1,1,170.2363,47.3322,400.013,400.0453,0.3660638,0.4707263,0.5533357,23.66263,11.76707,0,0.3487748,0.003255715,0,0.009681365,0.0002393181,0.0001306704,0.000183377,1.339819E-05,0.0003497309,0.0002793579,0.0002888426,0.004030801,0.004066311,0.08264533,0.08682135,0.0005562956,0.05873177,0,0.007877506,0.007758528,0.01803636,0.01842491,0.000541185,0.05466177,0,0,0,0.09628239,0.09208038,0.02845388,0.3381496,9.502766E-05,0.0004560467,0.000498484,0.002165433,0.002057613,1,0,-78.51709,"NAN",1,0,960,0.451189,162.7051,12.02291,16.81486,0,0,30.00813,29.91086,1,1,22.72784,9.540711
"2023-03-14 14:28:54.9",846,20,0,100,1.323696,0.0172087,0,29.99929,-0.9999716,73.50455,71.34667,0.02394488,23.12984,23.09119,2.351304,2.970696,2.246408,53.5956,43.05962,-19.99991,788.3348,12323,53.57497,50.51387,99.92876,99.97469,-26.99989,883.4194,12670,1,1,168.6337,100.2032,400.0002,400.0531,0.3926617,0.4642514,0.553788,23.82178,11.76763,0,0.5537881,0.006058731,0,0.009348793,0.0002353623,0.0001966206,0.0002275446,1.385636E-05,0.0003001501,0.000380095,0.0002843437,0.002227428,0.002604526,0.04920512,0.05414641,0.0005796782,0.05594871,0,0.008445696,0.01045238,0.01710616,0.02160824,0.000538973,0.05075997,0,0,0,0.1922091,0.08979247,0.021245,0.08158675,5.08126E-05,0.0001039541,0.0004843142,0.002112943,0.002070897,1,0,-77.47221,"NAN",1,0,960,0.4349258,162.3469,11.84897,16.80589,0,0,30.18616,30.07367,1,1,22.89728,9.538021
"2023-03-14 15:00:14.9",940,2,0,100,295.5175,3.263214,0,30.00018,-0.9999771,73.50737,71.34957,0.02394678,23.26071,23.21685,2.369138,2.967242,2.248827,53.48748,43.1025,-19.99991,792.8074,12323,49.65201,45.54823,92.68797,90.47932,-26.99989,887.7488,12667,1,1,163.2184,53.03269,399.9929,399.91,0.3714789,0.4853542,0.5548232,23.92359,11.7676,0,1.412221,0.01538997,0,0.01139788,0.0002699277,0.0001996596,0.000241664,1.269772E-05,0.0003130673,0.000237405,0.0003249837,0.0018519,0.001590975,0.03677212,0.0318035,0.0004976647,0.04739719,0,0.01830929,0.02213626,0.03382711,0.04239525,0.0005116636,0.04871039,0,0,0,0.1100022,0.2079652,0.02182449,0.3517196,8.904182E-05,0.0003934221,0.0005857287,0.001941532,0.002176255,1,0,-78.2588,"NAN",1,0,960,0.4467243,162.3306,11.4566,16.8135,0,0,30.3035,30.19779,1,1,22.99437,9.540305
"2023-03-14 15:31:34.9",1034,13,0,100,393.286,4.294665,0,30.00064,-0.9999861,73.50934,71.35173,0.02394931,23.26247,23.19509,2.381967,2.964464,2.247589,53.44633,43.05974,-19.99991,796.2305,12323,48.3778,44.02758,90.3615,87.5851,-26.99993,891.0691,12669,1,1,171.4501,56.2086,400.0209,400.0302,0.3725382,0.4668392,0.554182,23.90102,11.76732,0,0.2112102,0.001763012,0,0.01171298,0.0002734447,0.0002666534,0.0002739159,1.24434E-05,0.0002099268,0.0002100746,0.000328711,0.001664895,0.001645384,0.0336555,0.03436836,0.0005671858,0.05575738,0,0.003482333,0.004150212,0.008180219,0.009053277,0.0004898085,0.05064248,0,0,0,0.4061296,0.4445225,0.07201867,0.05780597,0.0004957887,5.700802E-05,0.000601078,0.002711229,0.002232642,1,0,-76.87124,"NAN",1,0,960,0.4760942,161.6793,11.06861,16.78811,0,0,30.27011,30.13904,1,1,22.95376,9.54152
"2023-03-14 16:02:54.9",1128,26,4,100,1071.631,11.80282,0,30.0018,-0.9999972,73.51083,71.35342,0.02394621,23.21099,23.1638,2.390171,2.963403,2.24497,53.4075,42.99607,-19.99995,798.4656,12323,40.52545,34.54073,75.89928,69.32941,-27.00001,893.204,12648,1,1,169.9277,0.6121109,401.7475,399.8633,0.2882602,0.4715636,0.5533834,23.82709,11.7653,0,0.819124,0.009226934,0,0.009739047,0.0002778824,0.0001937461,0.0002589019,1.440899E-05,0.0002508296,0.0002803107,0.0003335352,0.001651948,0.001866788,0.03396942,0.04222909,0.0005666611,0.05540034,0,0.007191566,0.007964572,0.01387465,0.01586845,0.000478936,0.04984539,0,0,0,0.4886388,0.4159218,0.3939996,0.4648795,0.01541668,0.0005083656,0.0005048699,0.001894997,0.002198483,1,0,-79.51236,"NAN",1,0,960,0.4592875,161.5602,10.92967,16.79433,0,0,30.20453,30.07367,1,1,22.84255,9.528519
"2023-03-14 16:05:34.9",1136,23,0,100,344.8285,3.79293,0,29.99914,-0.9999951,73.51098,71.35359,0.02394548,23.20009,23.15449,2.390609,2.965963,2.247788,53.44871,43.04892,-20,798.5734,12323,48.99332,44.74364,91.49328,88.9613,-27.00002,893.3363,12668,1,1,168.956,145.4873,400.0026,400.0872,0.4068504,0.4566248,0.5541723,23.81572,11.76432,0,0.1622627,0.001954181,0,0.01138728,0.0002247156,0.0001567202,0.0002346616,1.406886E-05,0.0002700558,0.0002948363,0.0002700308,0.00290113,0.00266333,0.06193016,0.05922204,0.0005304984,0.05262141,0,0.00442743,0.004320989,0.01007319,0.01009218,0.0004767937,0.04535542,0,0,0,0.1773773,0.1406256,0.02598315,0.124366,6.209427E-05,0.0001273132,0.0005845698,0.0021462,0.002127681,1,0,-79.73473,"NAN",1,0,960,0.4443317,161.2932,10.94172,16.78332,0,0,30.19896,30.07367,1,1,22.8408,9.523812